Sensor Model:   DT-670-CU-1.4L
Serial Number:  D6068043
Interpolation Method:   Straight Line
SetPoint Limit: 325.0      (Kelvin)
Data Format:    2      (Volts/Kelvin)
Number of Breakpoints:   36

No.   Units      Temperature (K)

  1  0.14703       475.0
  2  0.21870       445.0
  3  0.32600       400.0
  4  0.49026       330.0
  5  0.49949       325.0
  6  0.56908       295.0
  7  0.63786       265.0
  8  0.70543       235.0
  9  0.77161       205.0
 10  0.82547       180.0
 11  0.86757       160.0
 12  0.90866       140.0
 13  0.94843       120.0
 14  0.97715       105.0
 15  1.00489        90.0
 16  1.03141        75.0
 17  1.05670        60.0
 18  1.08254        44.0
 19  1.09366        37.0
 20  1.10228        32.0
 21  1.10808        29.0
 22  1.11261        27.0
 23  1.11546        26.0
 24  1.11916        25.0
 25  1.12539        24.0
 26  1.13955        23.0
 27  1.16147        22.0
 28  1.18050        21.0
 29  1.26658        15.5
 30  1.31234        13.0
 31  1.36839        10.5
 32  1.43946         8.0
 33  1.56541         4.4
 34  1.61080         2.7
 35  1.63259         1.6
 36  1.63483         1.4
