Sensor Model:	DT-670-CU-1.4L
Serial Number:	D6068043
Data Format:	6	(Volts/Kelvin)
Setpoint Limit:	325

Measurement (V)	Temp (K)	Curvature
4.87349E-01	3.30154E+02	2.78134E+01
4.96722E-01	3.26141E+02	-2.39181E+01
5.10691E-01	3.20154E+02	-1.01012E+02
5.22336E-01	3.15152E+02	-4.40262E+01
5.45545E-01	3.05158E+02	-7.96604E+01
5.80199E-01	2.90161E+02	-8.48801E+01
6.14593E-01	2.75171E+02	-1.07565E+02
6.48731E-01	2.60172E+02	-1.10564E+02
6.82569E-01	2.45173E+02	-1.29035E+02
7.16061E-01	2.30183E+02	-1.46775E+02
7.49210E-01	2.15185E+02	-1.60239E+02
7.81956E-01	2.00195E+02	-1.84327E+02
8.14270E-01	1.85208E+02	-2.14977E+02
8.46129E-01	1.70211E+02	-2.55653E+02
8.77429E-01	1.55221E+02	-3.08172E+02
9.08087E-01	1.40243E+02	-3.90761E+02
9.38040E-01	1.25251E+02	-4.92828E+02
9.67136E-01	1.10258E+02	-6.44579E+02
9.85959E-01	1.00276E+02	-7.49835E+02
9.97030E-01	9.42824E+01	-8.57368E+02
1.00790E+00	8.82945E+01	-9.29889E+02
1.01858E+00	8.23092E+01	-9.92908E+02
1.02907E+00	7.63158E+01	-1.06365E+03
1.03934E+00	7.03330E+01	-1.11143E+03
1.04943E+00	6.43448E+01	-1.13468E+03
1.05932E+00	5.83641E+01	-1.05596E+03
1.06905E+00	5.23861E+01	-7.90238E+02
1.07866E+00	4.63981E+01	-8.39805E+02
1.08501E+00	4.24059E+01	2.37581E+02
1.09146E+00	3.83845E+01	3.74599E+03
1.09643E+00	3.53753E+01	6.02089E+03
1.10174E+00	3.23315E+01	8.13943E+03
1.10554E+00	3.02903E+01	1.11032E+04
1.10757E+00	2.92633E+01	1.43566E+04
1.10974E+00	2.82371E+01	1.96732E+04
1.11163E+00	2.74135E+01	2.18575E+04
1.11378E+00	2.65748E+01	2.62819E+04
1.11630E+00	2.57401E+01	2.69662E+04
1.11868E+00	2.51104E+01	2.53887E+04
1.12187E+00	2.44797E+01	1.85423E+04
1.12675E+00	2.38580E+01	8.10294E+03
1.13497E+00	2.32462E+01	1.92172E+03
1.14704E+00	2.26459E+01	2.79524E+02
1.16459E+00	2.18533E+01	-7.06423E+02
1.17930E+00	2.10695E+01	-5.45350E+02
1.19517E+00	2.00993E+01	-2.16167E+02
1.21016E+00	1.91262E+01	-4.86271E+01
1.22490E+00	1.81565E+01	5.86951E+01
1.23987E+00	1.71833E+01	1.37669E+02
1.25535E+00	1.62082E+01	1.80925E+02
1.27173E+00	1.52232E+01	2.18995E+02
1.28925E+00	1.42331E+01	2.18656E+02
1.30837E+00	1.32288E+01	2.12862E+02
1.32931E+00	1.22166E+01	1.82193E+02
1.35240E+00	1.11934E+01	1.60607E+02
1.37796E+00	1.01611E+01	1.44738E+02
1.40634E+00	9.12524E+00	1.26170E+02
1.43748E+00	8.10305E+00	9.51051E+01
1.47244E+00	7.05980E+00	3.95542E+01
1.50858E+00	6.03333E+00	-8.69263E+00
1.54426E+00	5.01006E+00	-5.13772E+01
1.57032E+00	4.20812E+00	-2.25725E+02
1.58478E+00	3.70391E+00	-3.45102E+02
1.59770E+00	3.20037E+00	-1.96396E+02
1.60735E+00	2.80058E+00	-1.34406E+02
1.61663E+00	2.39925E+00	-4.21421E+02
1.62504E+00	1.99908E+00	-1.15783E+03
1.63045E+00	1.69955E+00	-2.08417E+03
1.63489E+00	1.40183E+00	-5.25893E+03
1.63616E+00	1.29985E+00	-8.62661E+03
1.63725E+00	1.20068E+00	-1.15390E+04
